%!PS-Adobe-2.0 EPSF-2.0
%%Creator: dvips(k) 5.997 Copyright 2017 Radical Eye Software
%%Title: figure.dvi
%%CreationDate: Thu Oct 22 21:10:28 2020
%%BoundingBox: 272 453 340 566
%%EndComments
%DVIPSWebPage: (www.radicaleye.com)
%DVIPSCommandLine: dvips -E -o hyperboloid1sheetD.eps figure
%DVIPSParameters: dpi=600
%DVIPSSource:  TeX output 2020.10.22:1409
%%BeginProcSet: tex.pro 0 0
%!
/TeXDict 300 dict def TeXDict begin/N{def}def/B{bind def}N/S{exch}N/X{S
N}B/A{dup}B/TR{translate}N/isls false N/vsize 11 72 mul N/hsize 8.5 72
mul N/landplus90{false}def/@rigin{isls{[0 landplus90{1 -1}{-1 1}ifelse 0
0 0]concat}if 72 Resolution div 72 VResolution div neg scale isls{
landplus90{VResolution 72 div vsize mul 0 exch}{Resolution -72 div hsize
mul 0}ifelse TR}if Resolution VResolution vsize -72 div 1 add mul TR[
matrix currentmatrix{A A round sub abs 0.00001 lt{round}if}forall round
exch round exch]setmatrix}N/@landscape{/isls true N}B/@manualfeed{
statusdict/manualfeed true put}B/@copies{/#copies X}B/FMat[1 0 0 -1 0 0]
N/FBB[0 0 0 0]N/nn 0 N/IEn 0 N/ctr 0 N/df-tail{/nn 8 dict N nn begin
/FontType 3 N/FontMatrix fntrx N/FontBBox FBB N string/base X array
/BitMaps X/BuildChar{CharBuilder}N/Encoding IEn N end A{/foo setfont}2
array copy cvx N load 0 nn put/ctr 0 N[}B/sf 0 N/df{/sf 1 N/fntrx FMat N
df-tail}B/dfs{div/sf X/fntrx[sf 0 0 sf neg 0 0]N df-tail}B/E{pop nn A
definefont setfont}B/Cw{Cd A length 5 sub get}B/Ch{Cd A length 4 sub get
}B/Cx{128 Cd A length 3 sub get sub}B/Cy{Cd A length 2 sub get 127 sub}
B/Cdx{Cd A length 1 sub get}B/Ci{Cd A type/stringtype ne{ctr get/ctr ctr
1 add N}if}B/CharBuilder{save 3 1 roll S A/base get 2 index get S
/BitMaps get S get/Cd X pop/ctr 0 N Cdx 0 Cx Cy Ch sub Cx Cw add Cy
setcachedevice Cw Ch true[1 0 0 -1 -.1 Cx sub Cy .1 sub]{Ci}imagemask
restore}B/D{/cc X A type/stringtype ne{]}if nn/base get cc ctr put nn
/BitMaps get S ctr S sf 1 ne{A A length 1 sub A 2 index S get sf div put
}if put/ctr ctr 1 add N}B/I{cc 1 add D}B/bop{userdict/bop-hook known{
bop-hook}if/SI save N @rigin 0 0 moveto/V matrix currentmatrix A 1 get A
mul exch 0 get A mul add .99 lt{/QV}{/RV}ifelse load def pop pop}N/eop{
SI restore userdict/eop-hook known{eop-hook}if showpage}N/@start{
userdict/start-hook known{start-hook}if pop/VResolution X/Resolution X
1000 div/DVImag X/IEn 256 array N 2 string 0 1 255{IEn S A 360 add 36 4
index cvrs cvn put}for pop 65781.76 div/vsize X 65781.76 div/hsize X}N
/dir 0 def/dyy{/dir 0 def}B/dyt{/dir 1 def}B/dty{/dir 2 def}B/dtt{/dir 3
def}B/p{dir 2 eq{-90 rotate show 90 rotate}{dir 3 eq{-90 rotate show 90
rotate}{show}ifelse}ifelse}N/RMat[1 0 0 -1 0 0]N/BDot 260 string N/Rx 0
N/Ry 0 N/V{}B/RV/v{/Ry X/Rx X V}B statusdict begin/product where{pop
false[(Display)(NeXT)(LaserWriter 16/600)]{A length product length le{A
length product exch 0 exch getinterval eq{pop true exit}if}{pop}ifelse}
forall}{false}ifelse end{{gsave TR -.1 .1 TR 1 1 scale Rx Ry false RMat{
BDot}imagemask grestore}}{{gsave TR -.1 .1 TR Rx Ry scale 1 1 false RMat
{BDot}imagemask grestore}}ifelse B/QV{gsave newpath transform round exch
round exch itransform moveto Rx 0 rlineto 0 Ry neg rlineto Rx neg 0
rlineto fill grestore}B/a{moveto}B/delta 0 N/tail{A/delta X 0 rmoveto}B
/M{S p delta add tail}B/b{S p tail}B/c{-4 M}B/d{-3 M}B/e{-2 M}B/f{-1 M}
B/g{0 M}B/h{1 M}B/i{2 M}B/j{3 M}B/k{4 M}B/w{0 rmoveto}B/l{p -4 w}B/m{p
-3 w}B/n{p -2 w}B/o{p -1 w}B/q{p 1 w}B/r{p 2 w}B/s{p 3 w}B/t{p 4 w}B/x{
0 S rmoveto}B/y{3 2 roll p a}B/bos{/SS save N}B/eos{SS restore}B end

%%EndProcSet
%%BeginProcSet: special.pro 0 0
%!
TeXDict begin/SDict 200 dict N SDict begin/@SpecialDefaults{/hs 612 N
/vs 792 N/ho 0 N/vo 0 N/hsc 1 N/vsc 1 N/ang 0 N/CLIP 0 N/rwiSeen false N
/rhiSeen false N/letter{}N/note{}N/a4{}N/legal{}N}B/@scaleunit 100 N
/@hscale{@scaleunit div/hsc X}B/@vscale{@scaleunit div/vsc X}B/@hsize{
/hs X/CLIP 1 N}B/@vsize{/vs X/CLIP 1 N}B/@clip{/CLIP 2 N}B/@hoffset{/ho
X}B/@voffset{/vo X}B/@angle{/ang X}B/@rwi{10 div/rwi X/rwiSeen true N}B
/@rhi{10 div/rhi X/rhiSeen true N}B/@llx{/llx X}B/@lly{/lly X}B/@urx{
/urx X}B/@ury{/ury X}B/magscale true def end/@MacSetUp{userdict/md known
{userdict/md get type/dicttype eq{userdict begin md length 10 add md
maxlength ge{/md md dup length 20 add dict copy def}if end md begin
/letter{}N/note{}N/legal{}N/od{txpose 1 0 mtx defaultmatrix dtransform S
atan/pa X newpath clippath mark{transform{itransform moveto}}{transform{
itransform lineto}}{6 -2 roll transform 6 -2 roll transform 6 -2 roll
transform{itransform 6 2 roll itransform 6 2 roll itransform 6 2 roll
curveto}}{{closepath}}pathforall newpath counttomark array astore/gc xdf
pop ct 39 0 put 10 fz 0 fs 2 F/|______Courier fnt invertflag{PaintBlack}
if}N/txpose{pxs pys scale ppr aload pop por{noflips{pop S neg S TR pop 1
-1 scale}if xflip yflip and{pop S neg S TR 180 rotate 1 -1 scale ppr 3
get ppr 1 get neg sub neg ppr 2 get ppr 0 get neg sub neg TR}if xflip
yflip not and{pop S neg S TR pop 180 rotate ppr 3 get ppr 1 get neg sub
neg 0 TR}if yflip xflip not and{ppr 1 get neg ppr 0 get neg TR}if}{
noflips{TR pop pop 270 rotate 1 -1 scale}if xflip yflip and{TR pop pop
90 rotate 1 -1 scale ppr 3 get ppr 1 get neg sub neg ppr 2 get ppr 0 get
neg sub neg TR}if xflip yflip not and{TR pop pop 90 rotate ppr 3 get ppr
1 get neg sub neg 0 TR}if yflip xflip not and{TR pop pop 270 rotate ppr
2 get ppr 0 get neg sub neg 0 S TR}if}ifelse scaleby96{ppr aload pop 4
-1 roll add 2 div 3 1 roll add 2 div 2 copy TR .96 dup scale neg S neg S
TR}if}N/cp{pop pop showpage pm restore}N end}if}if}N/normalscale{
Resolution 72 div VResolution 72 div neg scale magscale{DVImag dup scale
}if 0 setgray}N/@beginspecial{SDict begin/SpecialSave save N gsave
normalscale currentpoint TR @SpecialDefaults count/ocount X/dcount
countdictstack N}N/@setspecial{CLIP 1 eq{newpath 0 0 moveto hs 0 rlineto
0 vs rlineto hs neg 0 rlineto closepath clip}if ho vo TR hsc vsc scale
ang rotate rwiSeen{rwi urx llx sub div rhiSeen{rhi ury lly sub div}{dup}
ifelse scale llx neg lly neg TR}{rhiSeen{rhi ury lly sub div dup scale
llx neg lly neg TR}if}ifelse CLIP 2 eq{newpath llx lly moveto urx lly
lineto urx ury lineto llx ury lineto closepath clip}if/showpage{}N
/erasepage{}N/setpagedevice{pop}N/copypage{}N newpath}N/@endspecial{
count ocount sub{pop}repeat countdictstack dcount sub{end}repeat
grestore SpecialSave restore end}N/@defspecial{SDict begin}N
/@fedspecial{end}B/li{lineto}B/rl{rlineto}B/rc{rcurveto}B/np{/SaveX
currentpoint/SaveY X N 1 setlinecap newpath}N/st{stroke SaveX SaveY
moveto}N/fil{fill SaveX SaveY moveto}N/ellipse{/endangle X/startangle X
/yrad X/xrad X/savematrix matrix currentmatrix N TR xrad yrad scale 0 0
1 startangle endangle arc savematrix setmatrix}N end

%%EndProcSet
%%BeginProcSet: color.pro 0 0
%!
TeXDict begin/setcmykcolor where{pop}{/setcmykcolor{dup 10 eq{pop
setrgbcolor}{1 sub 4 1 roll 3{3 index add neg dup 0 lt{pop 0}if 3 1 roll
}repeat setrgbcolor pop}ifelse}B}ifelse/TeXcolorcmyk{setcmykcolor}def
/TeXcolorrgb{setrgbcolor}def/TeXcolorgrey{setgray}def/TeXcolorgray{
setgray}def/TeXcolorhsb{sethsbcolor}def/currentcmykcolor where{pop}{
/currentcmykcolor{currentrgbcolor 10}B}ifelse/DC{exch dup userdict exch
known{pop pop}{X}ifelse}B/GreenYellow{0.15 0 0.69 0 setcmykcolor}DC
/Yellow{0 0 1 0 setcmykcolor}DC/Goldenrod{0 0.10 0.84 0 setcmykcolor}DC
/Dandelion{0 0.29 0.84 0 setcmykcolor}DC/Apricot{0 0.32 0.52 0
setcmykcolor}DC/Peach{0 0.50 0.70 0 setcmykcolor}DC/Melon{0 0.46 0.50 0
setcmykcolor}DC/YellowOrange{0 0.42 1 0 setcmykcolor}DC/Orange{0 0.61
0.87 0 setcmykcolor}DC/BurntOrange{0 0.51 1 0 setcmykcolor}DC
/Bittersweet{0 0.75 1 0.24 setcmykcolor}DC/RedOrange{0 0.77 0.87 0
setcmykcolor}DC/Mahogany{0 0.85 0.87 0.35 setcmykcolor}DC/Maroon{0 0.87
0.68 0.32 setcmykcolor}DC/BrickRed{0 0.89 0.94 0.28 setcmykcolor}DC/Red{
0 1 1 0 setcmykcolor}DC/OrangeRed{0 1 0.50 0 setcmykcolor}DC/RubineRed{
0 1 0.13 0 setcmykcolor}DC/WildStrawberry{0 0.96 0.39 0 setcmykcolor}DC
/Salmon{0 0.53 0.38 0 setcmykcolor}DC/CarnationPink{0 0.63 0 0
setcmykcolor}DC/Magenta{0 1 0 0 setcmykcolor}DC/VioletRed{0 0.81 0 0
setcmykcolor}DC/Rhodamine{0 0.82 0 0 setcmykcolor}DC/Mulberry{0.34 0.90
0 0.02 setcmykcolor}DC/RedViolet{0.07 0.90 0 0.34 setcmykcolor}DC
/Fuchsia{0.47 0.91 0 0.08 setcmykcolor}DC/Lavender{0 0.48 0 0
setcmykcolor}DC/Thistle{0.12 0.59 0 0 setcmykcolor}DC/Orchid{0.32 0.64 0
0 setcmykcolor}DC/DarkOrchid{0.40 0.80 0.20 0 setcmykcolor}DC/Purple{
0.45 0.86 0 0 setcmykcolor}DC/Plum{0.50 1 0 0 setcmykcolor}DC/Violet{
0.79 0.88 0 0 setcmykcolor}DC/RoyalPurple{0.75 0.90 0 0 setcmykcolor}DC
/BlueViolet{0.86 0.91 0 0.04 setcmykcolor}DC/Periwinkle{0.57 0.55 0 0
setcmykcolor}DC/CadetBlue{0.62 0.57 0.23 0 setcmykcolor}DC
/CornflowerBlue{0.65 0.13 0 0 setcmykcolor}DC/MidnightBlue{0.98 0.13 0
0.43 setcmykcolor}DC/NavyBlue{0.94 0.54 0 0 setcmykcolor}DC/RoyalBlue{1
0.50 0 0 setcmykcolor}DC/Blue{1 1 0 0 setcmykcolor}DC/Cerulean{0.94 0.11
0 0 setcmykcolor}DC/Cyan{1 0 0 0 setcmykcolor}DC/ProcessBlue{0.96 0 0 0
setcmykcolor}DC/SkyBlue{0.62 0 0.12 0 setcmykcolor}DC/Turquoise{0.85 0
0.20 0 setcmykcolor}DC/TealBlue{0.86 0 0.34 0.02 setcmykcolor}DC
/Aquamarine{0.82 0 0.30 0 setcmykcolor}DC/BlueGreen{0.85 0 0.33 0
setcmykcolor}DC/Emerald{1 0 0.50 0 setcmykcolor}DC/JungleGreen{0.99 0
0.52 0 setcmykcolor}DC/SeaGreen{0.69 0 0.50 0 setcmykcolor}DC/Green{1 0
1 0 setcmykcolor}DC/ForestGreen{0.91 0 0.88 0.12 setcmykcolor}DC
/PineGreen{0.92 0 0.59 0.25 setcmykcolor}DC/LimeGreen{0.50 0 1 0
setcmykcolor}DC/YellowGreen{0.44 0 0.74 0 setcmykcolor}DC/SpringGreen{
0.26 0 0.76 0 setcmykcolor}DC/OliveGreen{0.64 0 0.95 0.40 setcmykcolor}
DC/RawSienna{0 0.72 1 0.45 setcmykcolor}DC/Sepia{0 0.83 1 0.70
setcmykcolor}DC/Brown{0 0.81 1 0.60 setcmykcolor}DC/Tan{0.14 0.42 0.56 0
setcmykcolor}DC/Gray{0 0 0 0.50 setcmykcolor}DC/Black{0 0 0 1
setcmykcolor}DC/White{0 0 0 0 setcmykcolor}DC end

%%EndProcSet
TeXDict begin 40258437 52099154 1000 600 600 (figure.dvi)
@start end
%%EndProlog
%%BeginSetup
%%Feature: *Resolution 600dpi
TeXDict begin
 end
%%EndSetup
TeXDict begin 1 0 bop 0 TeXcolorgray Black 0 TeXcolorgray
1359 2356 a @beginspecial @setspecial
%%BeginDocument: hyperboloid1sheetD.ps
%!PS-Adobe-3.0
%%BoundingBox:       0.0 0.0     144.0 144.0
%%Title:              
%%Created by:        Figure.java
%%Date:              Thu Oct 22 14:09:49 PDT 2020
%%EndComments

gsave

%% ellipse library

/ellipsedict 10 dict def        %% arguments: xcentre ycentre xradius yradius
ellipsedict /emtrx matrix put  %%            startangle endangle closetype

/ellipse                       %% closetype: 0 for open, 1 for chord, 2 for wedge
    {ellipsedict begin
       /closetype exch def
       /endangle exch def      /startangle exch def
       /yrad exch def          /xrad exch def
       /y exch def             /x exch def
       /savematrix emtrx currentmatrix def
    x y translate
    xrad  yrad  scale
    newpath
    closetype 2 eq  {0 0 moveto} if
    0 0 1 startangle endangle arc
    closetype 1 eq  {closepath} if
    closetype 2 eq  {closepath} if
    savematrix setmatrix
    end
    } def

%%  Figure2ps dictionary

/Figure2psDict 30 dict def
Figure2psDict begin
  /iscp false def
  {pop pop /iscp true def} {pop pop} {pop pop pop pop pop pop} {} pathforall
  iscp {currentpoint translate} if
  /setpsfont {exch findfont exch scalefont setfont} bind def
  /stringsize {/temp exch def gsave newpath 0 0 moveto
               temp true charpath flattenpath pathbbox
               /strh exch def /strw exch def pop  pop grestore} bind def

newpath -1.0 -1.0 moveto 145.0 -1.0 lineto 145.0 145.0 lineto -1.0 145.0 lineto closepath clip
/Helvetica 10 setpsfont
/DeviceGray setcolorspace

<<
    /ShadingType 6
    /ColorSpace	 /DeviceGray
    /DataSource [
  0       87.029  60.633   87.228  61.559   86.725  62.640     85.586  63.735   85.274  65.075   85.029  66.413     84.864  67.749   85.943  66.712   86.419  65.688     86.230  64.812   86.413  63.438   86.684  62.044
    0.224 0.159 0.153 0.221
  2     86.048  66.187   85.954  67.541     85.954  68.874   86.139  69.733   85.672  70.737     84.615  71.754   84.615  70.421   84.699  69.086
    0.219 0.150
  2     84.615  73.088   84.699  74.419     84.864  75.749   85.943  74.712   86.419  73.688     86.230  72.812   86.048  71.520   85.954  70.208
    0.153 0.221
  2     86.413  74.105   86.684  75.378     87.029  76.633   87.228  77.559   86.725  78.640     85.586  79.735   85.274  78.408   85.029  77.079
    0.224 0.159
  2     85.899  81.063   86.278  82.388     86.711  83.713   87.944  82.528   88.489  81.357     88.273  80.355   87.795  79.129   87.375  77.889
    0.166 0.228
  2     88.752  81.581   89.289  82.794     89.870  83.997   90.107  85.097   89.509  86.383     88.154  87.685   87.629  86.362   87.144  85.038
    0.232 0.173
  2     88.680  89.008   89.245  90.331     89.840  91.652   91.335  90.214   91.996  88.794     91.734  87.580   91.076  86.394   90.451  85.200
    0.177 0.234
  2     92.392  88.765   93.082  89.944     93.797  91.117   94.086  92.459   93.356  94.028     91.705  95.616   91.058  94.295   90.434  92.974
    0.236 0.181
  2     92.351  96.937   93.019  98.257     93.703  99.577   95.522  97.828   96.326  96.100     96.008  94.622   95.251  93.458   94.512  92.291
    0.183 0.237
  2     96.765  95.786   97.540  96.946     98.329  98.102   98.678  99.723   97.796 101.618     95.801 103.536   95.088 102.217   94.387 100.897
    0.238 0.185
  2     96.514 104.856   97.240 106.175     97.975 107.494  100.153 105.400  101.114 103.333    100.733 101.564   99.920 100.412   99.117  99.259
    0.187 0.239
  2    101.546 102.715  102.370 103.864    103.202 105.011  103.616 106.932  102.572 109.177    100.207 111.450   99.455 110.132   98.710 108.813
    0.240 0.188
  0       85.586  63.735   84.447  64.830   82.675  65.936     80.503  66.908   80.308  68.174   80.155  69.455     80.051  70.753   82.108  69.834   83.786  68.786     84.864  67.749   85.029  66.413   85.274  65.075
    0.159 0.132 0.124 0.153
  2     84.699  69.086   84.615  70.421     84.615  71.754   83.557  72.771   81.912  73.798     79.895  74.700   79.895  73.367   79.948  72.052
    0.150 0.120
  2     79.895  76.033   79.948  77.385     80.051  78.753   82.108  77.834   83.786  76.786     84.864  75.749   84.699  74.419   84.615  73.088
    0.124 0.153
  2     85.029  77.079   85.274  78.408     85.586  79.735   84.447  80.830   82.675  81.936     80.503  82.908   80.308  81.508   80.155  80.122
    0.159 0.132
  2     80.699  84.308   80.936  85.723     81.207  87.149   83.559  86.097   85.478  84.899     86.711  83.713   86.278  82.388   85.899  81.063
    0.140 0.166
  2     87.144  85.038   87.629  86.362     88.154  87.685   86.800  88.987   84.693  90.303     82.110  91.458   81.782  90.012   81.478  88.575
    0.173 0.148
  2     82.439  92.903   82.793  94.358     83.165  95.818   86.017  94.543   88.344  93.090     89.840  91.652   89.245  90.331   88.680  89.008
    0.153 0.177
  2     90.434  92.974   91.058  94.295     91.705  95.616   90.053  97.204   87.482  98.809     84.332 100.218   83.928  98.746   83.537  97.279
    0.181 0.158
  2     84.737 101.689   85.155 103.165     85.583 104.645   89.053 103.093   91.883 101.326     93.703  99.577   93.019  98.257   92.351  96.937
    0.161 0.183
  2     94.387 100.897   95.088 102.217     95.801 103.536   93.806 105.455   90.701 107.392     86.896 109.094   86.450 107.608   86.011 106.125
    0.185 0.163
  2     87.342 110.580   87.797 112.069     88.257 113.560   92.409 111.702   95.797 109.588     97.975 107.494   97.240 106.175   96.514 104.856
    0.165 0.187
  2     98.710 108.813   99.455 110.132    100.207 111.450   97.842 113.724   94.163 116.020     89.654 118.037   89.183 116.543   88.717 115.050
    0.188 0.166
  0       80.503  66.908   78.331  67.879   75.765  68.714     73.142  69.302   73.115  70.513   73.095  71.751     73.081  73.020   75.565  72.463   77.995  71.673     80.051  70.753   80.155  69.455   80.308  68.174
    0.132 0.149 0.142 0.124
  2     79.948  72.052   79.895  73.367     79.895  74.700   77.878  75.602   75.495  76.377     73.060  76.922   73.060  75.589   73.067  74.289
    0.120 0.139
  2     73.060  78.256   73.067  79.622     73.081  81.020   75.565  80.463   77.995  79.673     80.051  78.753   79.948  77.385   79.895  76.033
    0.142 0.124
  2     80.155  80.122   80.308  81.508     80.503  82.908   78.331  83.879   75.765  84.714     73.142  85.302   73.115  83.846   73.095  82.418
    0.132 0.149
  2     73.168  86.757   73.200  88.238     73.236  89.740   76.076  89.104   78.855  88.201     81.207  87.149   80.936  85.723   80.699  84.308
    0.157 0.140
  2     81.478  88.575   81.782  90.012     82.110  91.458   79.528  92.613   76.476  93.605     73.357  94.304   73.313  92.765   73.272  91.243
    0.148 0.164
  2     73.401  95.842   73.449  97.396     73.499  98.961   76.943  98.190   80.313  97.094     83.165  95.818   82.793  94.358   82.439  92.903
    0.169 0.153
  2     83.537  97.279   83.928  98.746     84.332 100.218   81.182 101.627   77.460 102.837     73.656 103.689   73.601 102.104   73.549 100.527
    0.158 0.172
  2     73.710 105.274   73.766 106.868     73.824 108.469   78.014 107.530   82.113 106.197     85.583 104.645   85.155 103.165   84.737 101.689
    0.175 0.161
  2     86.011 106.125   86.450 107.608     86.896 109.094   83.091 110.796   78.595 112.258     74.000 113.287   73.940 111.676   73.881 110.069
    0.163 0.177
  2     74.060 114.899   74.121 116.516     74.182 118.136   79.197 117.012   84.104 115.417     88.257 113.560   87.797 112.069   87.342 110.580
    0.179 0.165
  2     88.717 115.050   89.183 116.543     89.654 118.037   85.144 120.054   79.816 121.787     74.370 123.007   74.307 121.380   74.244 119.756
    0.166 0.180
  0       73.142  69.302   70.518  69.889   67.845  70.228     65.474  70.275   65.624  71.464   65.742  72.684     65.821  73.941   68.066  73.897   70.597  73.576     73.081  73.020   73.095  71.751   73.115  70.513
    0.149 0.207 0.203 0.142
  2     73.067  74.289   73.060  75.589     73.060  76.922   70.624  77.468   68.143  77.783     65.941  77.826   65.941  76.492   65.900  75.198
    0.139 0.201
  2     65.941  79.159   65.900  80.532     65.821  81.941   68.066  81.897   70.597  81.576     73.081  81.020   73.067  79.622   73.060  78.256
    0.203 0.142
  2     73.095  82.418   73.115  83.846     73.142  85.302   70.518  85.889   67.845  86.228     65.474  86.275   65.624  84.797   65.742  83.351
    0.149 0.207
  2     65.324  87.752   65.142  89.261     64.934  90.794   67.501  90.744   70.396  90.377     73.236  89.740   73.200  88.238   73.168  86.757
    0.212 0.157
  2     73.272  91.243   73.313  92.765     73.357  94.304   70.238  95.002   67.060  95.406     64.241  95.461   64.493  93.885   64.726  92.327
    0.164 0.216
  2     63.988  97.037   63.717  98.631     63.431 100.239   66.545 100.178   70.055  99.733     73.499  98.961   73.449  97.396   73.401  95.842
    0.219 0.169
  2     73.549 100.527   73.601 102.104     73.656 103.689   69.851 104.541   65.974 105.033     62.535 105.100   62.846 103.468   63.145 101.847
    0.172 0.221
  2     62.225 106.732   61.904 108.374     61.575 110.023   65.363 109.949   69.633 109.407     73.824 108.469   73.766 106.868   73.710 105.274
    0.223 0.175
  2     73.881 110.069   73.940 111.676     74.000 113.287   69.405 114.317   64.722 114.911     60.568 114.992   60.910 113.329   61.247 111.672
    0.177 0.224
  2     60.225 116.655   59.877 118.323     59.523 119.996   64.057 119.908   69.168 119.259     74.182 118.136   74.121 116.516   74.060 114.899
    0.225 0.179
  2     74.244 119.756   74.307 121.380     74.370 123.007   68.924 124.227   63.374 124.931     58.451 125.027   58.813 123.346   59.170 121.669
    0.180 0.226
